#
# XOS supplied transmission (axial?) for MM polycapillary.
# Modified by extra fall-off term: exp(-0.19*( (E > 10.) - 10.))
#
# Model name for droplist ...
XOS MaiaMapper 1
#
# Gain, Energy (for gain), relative to Pinhole (mm), pinhole distance (mm):
21000., 17.4, 0.025, 100.0
#
# Beam diameter at exit (mm), focus spot (mm), focal distance (mm)
2.0, 0.03, 14.0
#
# Transmission versus E (keV) table ...
   0.330, 1.6478E+00
   0.660, 3.2957E+00
   0.990, 4.9435E+00
   1.320, 4.4408E+00
   1.650, 3.8709E+00
   1.980, 3.3010E+00
   2.310, 3.5632E+00
   2.640, 3.8791E+00
   2.970, 4.1950E+00
   3.300, 4.3924E+00
   3.630, 4.5781E+00
   3.960, 4.7637E+00
   4.290, 4.9278E+00
   4.620, 5.0890E+00
   4.950, 5.2502E+00
   5.280, 5.3755E+00
   5.610, 5.4944E+00
   5.940, 5.6133E+00
   6.270, 5.7148E+00
   6.600, 5.8125E+00
   6.930, 5.9102E+00
   7.260, 5.9912E+00
   7.590, 6.0677E+00
   7.920, 6.1443E+00
   8.250, 6.2011E+00
   8.580, 6.2515E+00
   8.910, 6.3020E+00
   9.240, 6.3335E+00
   9.570, 6.3580E+00
   9.900, 6.3824E+00
  10.230, 6.1025E+00
  10.560, 5.7125E+00
  10.890, 5.3475E+00
  11.220, 4.9825E+00
  11.550, 4.6311E+00
  11.880, 4.3041E+00
  12.210, 3.9800E+00
  12.540, 3.6688E+00
  12.870, 3.3807E+00
  13.200, 3.1071E+00
  13.530, 2.8500E+00
  13.860, 2.6126E+00
  14.190, 2.3940E+00
  14.520, 2.1927E+00
  14.850, 2.0069E+00
  15.180, 1.8357E+00
  15.510, 1.6778E+00
  15.840, 1.5323E+00
  16.170, 1.4005E+00
  16.500, 1.2808E+00
  16.830, 1.1705E+00
  17.160, 1.0688E+00
  17.490, 9.7523E-01
  17.820, 8.8906E-01
  18.150, 8.1181E-01
  18.480, 7.4297E-01
  18.810, 6.7949E-01
  19.140, 6.2208E-01
  19.470, 5.7054E-01
  19.800, 5.2297E-01
  20.130, 4.7935E-01
  20.460, 4.3950E-01
  20.790, 4.0273E-01
  21.120, 3.6881E-01
  21.450, 3.3752E-01
  21.780, 3.0867E-01
  22.110, 2.8252E-01
  22.440, 2.5922E-01
  22.770, 2.3771E-01
  23.100, 2.1802E-01
  23.430, 2.0020E-01
  23.760, 1.8374E-01
  24.090, 1.6867E-01
  24.420, 1.5505E-01
  24.750, 1.4247E-01
  25.080, 1.3084E-01
  25.410, 1.2010E-01
  25.740, 1.1018E-01
  26.070, 1.0111E-01
  26.400, 9.3014E-02
  26.730, 8.5531E-02
  27.060, 7.8578E-02
  27.390, 7.2008E-02
  27.720, 6.5947E-02
  28.050, 6.0428E-02
  28.380, 5.5715E-02
  28.710, 5.1351E-02
  29.040, 4.7265E-02
  29.370, 4.3161E-02
  29.700, 3.9381E-02
  30.030, 3.5944E-02
  30.360, 3.3181E-02
  30.690, 3.0621E-02
  31.020, 2.8259E-02
  31.350, 2.6203E-02
  31.680, 2.4293E-02
  32.010, 2.2516E-02
  32.340, 2.0797E-02
  32.670, 1.9205E-02
  33.000, 1.7728E-02
  33.330, 1.6322E-02
  33.660, 1.5021E-02
  33.990, 1.3818E-02
  34.320, 1.2830E-02
  34.650, 1.1915E-02
  34.980, 1.1063E-02
  35.310, 1.0122E-02
  35.640, 9.2447E-03
  35.970, 8.4368E-03
  36.300, 7.7630E-03
  36.630, 7.1465E-03
  36.960, 6.5763E-03
  37.290, 6.0410E-03
  37.620, 5.5454E-03
  37.950, 5.0877E-03
  38.280, 4.6524E-03
  38.610, 4.2490E-03
  38.940, 3.8775E-03
  39.270, 3.5508E-03
  39.600, 3.2527E-03
  39.930, 2.9777E-03
  40.260, 2.7487E-03
  40.590, 2.5427E-03
  40.920, 2.3515E-03
  41.250, 2.1743E-03
  41.580, 2.0098E-03
  41.910, 1.8574E-03
  42.240, 1.7134E-03
  42.570, 1.5792E-03
  42.900, 1.4550E-03
  43.230, 1.3482E-03
  43.560, 1.2524E-03
  43.890, 1.1633E-03
  44.220, 1.0755E-03
  44.550, 9.9177E-04
  44.880, 9.1425E-04
  45.210, 8.4378E-04
  45.540, 7.7919E-04
  45.870, 7.1933E-04
  46.200, 6.6184E-04
  46.530, 6.0743E-04
  46.860, 5.5720E-04
  47.190, 5.1323E-04
  47.520, 4.7420E-04
  47.850, 4.3803E-04
  48.180, 4.0387E-04
  48.510, 3.7175E-04
  48.840, 3.4205E-04
  49.170, 3.1458E-04
  49.500, 2.8919E-04
  49.830, 2.6573E-04
  50.160, 2.4404E-04
  50.490, 2.2401E-04
  50.820, 2.0552E-04
  51.150, 1.8844E-04
  51.480, 1.7268E-04
  51.810, 1.5815E-04
  52.140, 1.4474E-04
  52.470, 1.3237E-04
  52.800, 1.2098E-04
  53.130, 1.1048E-04
  53.460, 1.0081E-04
  53.790, 9.1904E-05
  54.120, 8.3711E-05
  54.450, 7.6175E-05
  54.780, 6.9245E-05
  55.110, 6.2876E-05
  55.440, 5.7026E-05
  55.770, 5.1654E-05
  56.100, 4.6725E-05
  56.430, 4.2204E-05
  56.760, 3.8060E-05
  57.090, 3.4264E-05
  57.420, 3.0789E-05
  57.750, 2.7609E-05
  58.080, 2.4703E-05
  58.410, 2.2047E-05
  58.740, 1.9623E-05
  59.070, 1.7413E-05
  59.400, 1.5398E-05
  59.730, 1.3564E-05
  60.060, 1.1896E-05
  60.390, 1.0381E-05
  60.720, 9.0063E-06
  61.050, 7.7600E-06
  61.380, 6.6320E-06
  61.710, 5.6125E-06
  62.040, 4.6924E-06
  62.370, 3.8633E-06
  62.700, 3.1178E-06
  63.030, 2.4485E-06
  63.360, 1.8491E-06
  63.690, 1.3136E-06
  64.020, 8.3624E-07
  64.350, 4.1209E-07
  64.680, 3.6418E-08
  65.010,-2.9512E-07
  65.340,-5.8650E-07
  65.670,-8.4137E-07
  66.000,-1.0631E-06
  66.330,-1.2548E-06
  66.660,-1.4192E-06
  66.990,-1.5590E-06
  67.320,-1.6766E-06
  67.650,-1.7741E-06
  67.980,-1.8536E-06
  68.310,-1.9169E-06
  68.640,-1.9656E-06
  68.970,-2.0014E-06
  69.300,-2.0255E-06
  69.630,-2.0393E-06
  69.960,-2.0439E-06
  70.290,-2.0405E-06
  70.620,-2.0299E-06
  70.950,-2.0131E-06
  71.280,-1.9908E-06
  71.610,-1.9638E-06
  71.940,-1.9327E-06
  72.270,-1.8981E-06
  72.600,-1.8606E-06
  72.930,-1.8207E-06
  73.260,-1.7787E-06
  73.590,-1.7351E-06
  73.920,-1.6903E-06
  74.250,-1.6444E-06
  74.580,-1.5980E-06
  74.910,-1.5510E-06
  75.240,-1.5039E-06
  75.570,-1.4568E-06
  75.900,-1.4099E-06
  76.230,-1.3633E-06
  76.560,-1.3171E-06
  76.890,-1.2715E-06
  77.220,-1.2266E-06
  77.550,-1.1825E-06
  77.880,-1.1391E-06
  78.210,-1.0967E-06
  78.540,-1.0553E-06
  78.870,-1.0148E-06
  79.200,-9.7533E-07
  79.530,-9.3692E-07
  79.860,-8.9958E-07
  80.190,-8.6332E-07
  80.520,-8.2814E-07
  80.850,-7.9405E-07
  81.180,-7.6105E-07
  81.510,-7.2912E-07
  81.840,-6.9826E-07
  82.170,-6.6846E-07
  82.500,-6.3971E-07
  82.830,-6.1198E-07
  83.160,-5.8525E-07
  83.490,-5.5952E-07
  83.820,-5.3475E-07
  84.150,-5.1093E-07
  84.480,-4.8802E-07
  84.810,-4.6602E-07
  85.140,-4.4488E-07
  85.470,-4.2459E-07
  85.800,-4.0513E-07
  86.130,-3.8646E-07
  86.460,-3.6857E-07
  86.790,-3.5142E-07
  87.120,-3.3500E-07
  87.450,-3.1927E-07
  87.780,-3.0422E-07
  88.110,-2.8982E-07
  88.440,-2.7605E-07
  88.770,-2.6288E-07
  89.100,-2.5029E-07
  89.430,-2.3826E-07
  89.760,-2.2677E-07
  90.090,-2.1579E-07
  90.420,-2.0531E-07
  90.750,-1.9531E-07
  91.080,-1.8576E-07
  91.410,-1.7666E-07
  91.740,-1.6797E-07
  92.070,-1.5969E-07
  92.400,-1.5179E-07
  92.730,-1.4427E-07
  93.060,-1.3710E-07
  93.390,-1.3026E-07
  93.720,-1.2376E-07
  94.050,-1.1756E-07
  94.380,-1.1165E-07
  94.710,-1.0603E-07
  95.040,-1.0069E-07
  95.370,-9.5596E-08
  95.700,-9.0753E-08
  96.030,-8.6145E-08
  96.360,-8.1762E-08
  96.690,-7.7594E-08
  97.020,-7.3630E-08
  97.350,-6.9862E-08
  97.680,-6.6280E-08
  98.010,-6.2875E-08
  98.340,-5.9639E-08
  98.670,-5.6564E-08
